%Time (s)	Wheel Position (deg)	Slide position (mm)	Wheel Speed (deg/s)	Slide Speed (mm/s)	Actual sample time (ms)	%2/11/20154:44 PM
0.000	11026.920	98.526	560.917	1252.899	22.000
0.020	11038.200	122.557	513.250	1128.455	19.000
0.040	11047.380	143.482	445.083	978.718	19.000
0.060	11056.320	161.630	438.000	824.365	20.000
0.080	11065.060	176.220	452.417	617.672	21.000
0.100	11074.520	186.612	482.083	474.437	19.000
0.120	11084.400	195.101	515.667	312.477	20.000
0.140	11095.340	198.815	587.833	95.252	21.000
0.160	11107.860	198.846	652.583	-129.841	20.000
0.180	11121.120	193.712	648.917	-344.596	19.000
0.200	11134.020	185.442	695.333	-488.221	22.000
0.220	11148.880	174.285	732.667	-623.979	19.000
0.240	11163.060	160.600	713.500	-740.166	20.000
0.260	11177.600	144.730	733.917	-847.641	20.000
0.280	11192.540	126.645	776.167	-971.176	21.000
0.300	11208.580	106.078	807.417	-1057.585	19.000
0.320	11224.620	84.466	791.917	-1128.910	20.000
0.340	11240.460	61.122	817.000	-1182.550	19.000
0.360	11257.520	37.934	876.167	-1112.915	20.000
0.380	11275.700	17.633	980.917	-888.278	21.000
0.400	11296.260	3.651	990.167	-463.449	19.000
0.420	11314.960	0.047	942.583	120.023	20.000
0.440	11333.960	8.473	913.833	711.298	21.000
0.460	11351.080	27.401	801.917	1118.377	20.000
0.480	11365.900	51.775	663.833	1291.390	19.000
0.500	11378.020	78.053	603.500	1316.422	22.000
0.520	11390.160	103.753	562.333	1244.642	19.000
0.540	11400.320	127.285	469.167	1076.050	20.000
0.560	11409.340	146.915	464.500	947.184	21.000
0.580	11418.860	165.094	436.083	807.265	18.000
0.600	11427.000	178.904	445.250	606.359	21.000
0.620	11436.940	189.452	507.667	436.922	20.000
0.640	11447.120	196.256	519.250	240.567	19.000
0.660	11457.980	199.049	593.083	45.123	21.000
0.680	11470.700	197.941	633.000	-176.524	19.000
0.700	11483.240	192.105	659.667	-379.901	20.000
0.720	11497.280	183.070	735.667	-524.436	22.000
0.740	11512.300	171.258	738.250	-653.302	19.000
0.760	11526.620	157.027	705.250	-768.254	20.000
0.780	11540.780	140.548	725.667	-882.621	19.000
0.800	11555.860	121.776	783.417	-988.276	21.000
0.820	11572.060	101.085	829.917	-1085.998	20.000
0.840	11588.840	78.506	835.833	-1161.874	20.000
0.860	11605.440	55.021	826.167	-1179.819	19.000
0.880	11622.300	32.114	897.750	-1076.115	21.000
0.900	11641.460	13.108	995.917	-797.447	20.000
0.920	11661.540	1.467	977.583	-315.598	19.000
0.940	11680.340	1.233	931.750	293.232	20.000
0.960	11698.720	12.858	880.667	847.251	21.000
0.980	11715.280	33.861	779.667	1192.108	20.000
1.000	11729.700	59.156	635.333	1313.366	19.000
1.020	11741.060	85.512	561.167	1306.734	20.000
1.040	11752.480	110.853	549.333	1217.009	21.000
1.060	11762.840	133.823	488.167	1072.864	20.000
1.080	11772.100	153.562	443.917	896.990	19.000
1.100	11780.860	169.697	446.667	724.562	21.000
1.120	11790.100	182.571	467.417	559.741	20.000
1.140	11799.640	191.996	498.083	379.056	19.000
1.160	11810.160	197.614	550.333	177.825	20.000
1.180	11821.800	199.065	634.083	-28.803	21.000
1.200	11835.300	196.443	675.333	-242.128	20.000
1.220	11848.580	189.546	670.667	-428.274	20.000
1.240	11862.320	179.575	713.250	-568.389	21.000
1.260	11877.000	166.904	731.500	-699.205	19.000
1.280	11891.480	151.721	732.083	-810.906	20.000
1.300	11906.300	134.525	730.167	-912.985	19.000
1.320	11921.020	115.160	797.000	-1030.667	22.000
1.340	11938.080	93.532	848.750	-1102.122	19.000
1.360	11954.440	71.140	775.583	-1179.884	19.000
1.380	11969.960	46.875	896.833	-1179.429	22.000
1.400	11989.920	25.076	919.000	-996.598	17.000
1.420	12006.680	8.083	930.083	-657.788	22.000
1.440	12027.640	-0.016	1082.500	-113.132	21.000
1.460	12048.500	4.010	924.500	510.197	18.000
1.480	12064.680	19.646	813.417	1011.292	21.000
1.500	12081.120	42.928	720.833	1252.964	19.000
1.520	12093.380	68.612	581.500	1319.543	20.000
1.540	12105.100	95.031	597.750	1295.031	22.000
1.560	12116.960	119.779	531.750	1167.076	19.000
1.580	12126.300	141.453	450.500	1004.400	19.000
1.600	12135.360	159.898	441.583	837.304	20.000
1.620	12144.180	174.925	465.250	670.792	22.000
1.640	12154.020	186.597	493.417	476.453	19.000
1.660	12163.920	194.056	518.583	300.319	20.000
1.680	12174.860	198.597	558.333	127.891	19.000
1.700	12186.440	198.846	639.167	-113.002	22.000
1.720	12200.180	194.227	671.167	-323.985	19.000
1.740	12213.080	186.222	658.750	-468.651	19.000
1.760	12226.900	175.362	734.333	-659.414	22.000
1.780	12242.100	160.397	731.833	-739.646	19.000
1.800	12256.100	145.885	711.667	-801.023	19.000
1.820	12271.040	127.924	801.583	-957.847	22.000
1.840	12287.620	107.826	768.750	-1059.145	17.000
1.860	12301.880	85.808	747.167	-1119.872	20.000
1.880	12318.320	63.151	903.917	-1182.030	22.000
1.900	12337.320	39.292	892.250	-1118.767	19.000
1.920	12354.200	19.381	932.000	-907.913	21.000
1.940	12374.780	4.151	1014.750	-518.195	20.000
1.960	12394.320	-0.078	1015.583	97.657	21.000
1.980	12414.740	7.989	905.083	695.629	18.000
2.000	12430.140	26.652	715.000	1112.200	19.000
2.020	12444.120	51.042	694.083	1295.226	22.000
2.040	12457.760	77.413	626.500	1321.949	19.000
2.060	12469.120	103.223	546.250	1245.812	21.000
2.080	12479.780	126.832	500.833	1108.624	20.000
2.100	12489.180	147.399	451.417	949.915	19.000
2.120	12498.040	164.751	436.583	779.763	20.000
2.140	12506.860	178.592	459.417	613.511	21.000
2.160	12516.440	189.234	476.750	438.547	19.000
2.180	12526.120	196.022	527.333	242.063	20.000
2.200	12537.700	198.940	613.333	57.866	21.000
2.220	12550.380	198.144	642.833	-169.047	20.000
2.240	12563.320	192.324	662.083	-369.498	20.000
2.260	12576.800	183.663	665.167	-516.634	19.000
2.280	12590.160	171.773	723.417	-652.132	21.000
2.300	12605.460	157.729	717.917	-760.647	18.000
2.320	12618.980	141.360	735.000	-871.633	21.000
2.340	12635.060	122.915	795.333	-973.777	20.000
2.360	12650.560	102.458	807.667	-1071.239	21.000
2.380	12667.220	80.222	787.167	-1147.505	18.000
2.400	12682.420	56.909	843.167	-1177.348	21.000
2.420	12701.020	33.924	906.500	-1083.787	20.000
2.440	12718.600	14.637	952.417	-824.755	21.000
2.460	12739.100	2.153	1012.583	-369.888	20.000
2.480	12758.480	0.687	951.917	228.799	19.000
2.500	12777.040	11.095	891.250	794.652	21.000
2.520	12793.660	31.256	732.500	1157.973	18.000
2.540	12806.640	55.988	637.750	1289.115	21.000
2.560	12819.480	81.923	601.417	1290.480	19.000
2.580	12830.540	107.046	520.333	1211.093	20.000
2.600	12840.520	130.000	487.583	1077.350	21.000
2.620	12850.080	149.942	452.417	914.415	20.000
2.640	12858.780	166.530	448.917	746.473	21.000
2.660	12868.040	179.825	434.833	585.878	18.000
2.680	12876.460	189.905	474.417	414.881	22.000
2.700	12887.160	196.334	537.250	228.799	19.000
2.720	12897.880	199.034	583.333	44.212	20.000
2.740	12910.460	197.941	623.750	-174.639	19.000
2.760	12922.860	192.152	674.750	-376.325	21.000
2.780	12937.300	183.195	695.250	-522.746	19.000
2.800	12950.660	171.383	715.917	-651.157	22.000
2.820	12966.000	157.245	756.083	-764.353	20.000
2.840	12980.640	140.829	734.417	-876.835	19.000
2.860	12995.680	122.213	786.917	-982.749	21.000
2.880	13011.840	101.569	769.500	-1084.958	18.000
2.900	13026.740	79.020	810.917	-1157.193	21.000
2.920	13044.440	55.676	888.500	-1174.358	20.000
2.940	13061.860	32.800	864.417	-1078.456	19.000
2.960	13079.560	13.654	965.833	-809.931	22.000
2.980	13100.240	1.670	1019.083	-335.299	19.000
3.000	13119.680	1.014	957.750	269.305	20.000
3.020	13138.240	12.156	852.500	828.396	19.000
3.040	13153.700	32.910	729.750	1181.835	20.000
3.060	13167.800	58.017	688.417	1305.954	21.000
3.080	13181.020	84.264	593.083	1302.703	19.000
3.100	13191.580	109.558	503.833	1218.245	20.000
3.120	13201.600	132.590	501.167	1071.694	21.000
3.140	13211.520	152.252	467.083	900.046	20.000
3.160	13220.260	168.605	419.667	735.875	19.000
3.180	13228.760	181.666	462.917	568.909	22.000
3.200	13238.800	191.294	498.083	392.775	19.000
3.220	13248.740	197.223	539.417	186.472	20.000
3.240	13260.560	198.799	626.917	-6.307	21.000
3.260	13273.380	196.958	616.500	-207.733	18.000
3.280	13285.460	190.685	664.250	-365.792	21.000
3.300	13299.980	182.165	718.667	-569.689	20.000
3.320	13313.940	168.246	717.417	-711.689	21.000
3.340	13328.740	154.171	737.250	-758.827	20.000
3.360	13343.360	137.537	741.000	-891.204	19.000
3.380	13358.400	118.609	747.500	-1000.239	19.000
3.400	13373.380	97.636	770.333	-1094.385	20.000
3.420	13389.500	75.026	852.750	-1162.004	21.000
3.440	13407.280	51.526	892.417	-1186.646	20.000
3.460	13424.940	28.603	879.000	-1039.965	19.000
3.480	13442.720	11.048	925.167	-720.661	20.000
3.500	13462.060	0.796	1001.917	-246.484	21.000
3.520	13482.200	2.029	969.667	385.818	19.000
3.540	13500.320	15.604	844.917	906.613	20.000
3.560	13516.080	36.920	747.750	1197.959	21.000
3.580	13530.320	62.339	668.750	1308.555	20.000
3.600	13542.740	88.399	564.000	1289.960	19.000
3.620	13553.100	113.381	497.250	1190.677	20.000
3.640	13562.960	135.664	495.083	1035.739	21.000
3.660	13572.740	154.702	449.917	868.577	20.000
3.680	13581.040	170.384	417.083	697.840	19.000
3.700	13589.760	182.680	443.917	542.706	20.000
3.720	13599.020	192.012	509.500	373.529	21.000
3.740	13610.040	197.473	547.250	177.304	20.000
3.760	13621.000	199.080	608.333	-18.660	21.000
3.780	13634.260	196.677	650.167	-227.628	19.000
3.800	13646.780	190.123	642.500	-411.695	20.000
3.820	13660.240	180.449	699.000	-555.515	20.000
3.840	13674.640	168.059	732.917	-675.799	21.000
3.860	13689.380	153.484	736.000	-787.045	19.000
3.880	13704.000	136.600	722.500	-896.405	20.000
3.900	13718.480	117.672	745.583	-999.589	19.000
3.920	13734.040	96.700	809.750	-1092.370	21.000
3.940	13750.760	74.183	849.333	-1157.388	20.000
3.960	13767.900	50.855	864.083	-1158.298	20.000
3.980	13785.520	28.681	922.500	-1033.008	21.000
4.000	13804.740	10.673	973.417	-731.519	20.000
4.020	13824.080	0.655	954.083	-228.019	19.000
4.040	13842.760	2.216	917.417	391.019	19.000
4.060	13860.700	15.745	881.583	918.706	22.000
4.080	13877.520	37.544	747.167	1207.647	19.000
4.100	13890.580	62.792	611.667	1299.778	20.000
4.120	13902.480	88.758	577.583	1282.613	20.000
4.140	13913.580	113.506	505.750	1174.878	19.000
4.160	13922.900	135.430	471.917	1018.964	21.000
4.180	13932.560	154.202	456.333	858.499	20.000
4.200	13941.060	169.775	409.750	700.505	19.000
4.220	13949.340	182.228	439.917	545.307	21.000
4.240	13958.800	191.512	489.333	378.015	20.000
4.260	13968.900	197.223	531.167	188.618	19.000
4.280	13980.100	199.018	581.667	-4.096	20.000
4.300	13992.260	197.005	655.167	-209.618	22.000
4.320	14006.080	190.748	686.250	-397.261	19.000
4.340	14019.500	181.369	675.667	-540.496	20.000
4.360	14033.320	169.276	717.500	-661.820	21.000
4.380	14048.020	154.951	715.417	-777.682	19.000
4.400	14062.040	138.239	733.250	-881.711	20.000
4.420	14077.560	119.717	802.000	-981.124	21.000
4.440	14093.660	99.010	766.667	-1083.787	18.000
4.460	14108.500	76.586	791.083	-1153.357	21.000
4.480	14125.560	53.304	865.250	-1162.004	19.000
4.500	14142.900	30.881	882.500	-1054.269	20.000
4.520	14161.200	12.249	982.333	-774.301	22.000
4.540	14181.820	1.170	1011.167	-287.575	19.000
4.560	14201.160	1.451	963.667	318.719	21.000
4.580	14219.900	13.513	831.667	858.434	18.000
4.600	14234.560	34.501	732.500	1184.500	21.000
4.620	14249.420	59.546	681.667	1294.381	20.000
4.640	14261.520	85.434	555.083	1285.344	19.000
4.660	14271.980	110.323	502.417	1173.317	20.000
4.680	14281.820	132.231	481.250	1055.309	21.000
4.700	14291.240	152.330	458.000	904.922	20.000
4.720	14300.100	168.215	419.417	712.794	19.000
4.740	14308.300	181.010	433.333	561.432	21.000
4.760	14317.640	190.607	481.500	394.790	20.000
4.780	14327.560	196.724	522.583	216.640	19.000
4.800	14338.620	199.174	578.917	23.407	20.000
4.820	14350.720	197.551	635.750	-190.633	21.000
4.840	14363.980	191.606	681.333	-402.527	20.000
4.860	14377.860	181.931	709.250	-522.681	21.000
4.880	14392.220	170.821	714.583	-627.035	20.000
4.900	14406.420	156.715	718.500	-764.873	19.000
4.920	14420.960	140.361	720.250	-873.324	19.000
4.940	14435.340	121.823	735.917	-978.718	20.000
4.960	14450.720	101.288	823.500	-1074.490	21.000
4.980	14467.880	79.020	824.417	-1146.140	20.000
5.000	14483.640	55.817	814.000	-1166.035	19.000
5.020	14500.840	33.128	884.167	-1072.669	20.000
5.040	14519.040	13.997	957.083	-811.621	21.000
5.060	14538.880	1.904	990.833	-349.082	20.000
5.080	14558.260	0.811	951.917	243.948	19.000
5.100	14576.800	11.422	904.167	799.528	22.000
5.120	14593.940	31.599	762.000	1157.388	19.000
5.140	14607.320	56.316	629.750	1287.619	19.000
5.160	14619.540	82.188	576.583	1280.727	20.000
5.180	14630.460	107.108	527.917	1224.096	21.000
5.200	14640.680	130.562	481.250	1065.062	20.000
5.220	14649.740	149.521	435.750	877.550	19.000
5.240	14658.280	165.874	418.167	738.671	20.000
5.260	14666.680	178.998	436.500	581.002	21.000
5.280	14675.840	189.094	467.917	423.983	20.000
5.300	14685.460	195.835	504.917	243.233	19.000
5.320	14696.220	198.815	580.583	68.269	21.000
5.340	14708.540	198.394	624.667	-142.130	20.000
5.360	14721.140	193.182	658.333	-345.831	20.000
5.380	14734.900	184.880	704.417	-489.522	21.000
5.400	14749.100	173.708	709.167	-623.004	20.000
5.420	14763.160	160.085	693.667	-734.640	19.000
5.440	14777.020	144.340	712.667	-846.276	19.000
5.460	14791.780	126.255	746.417	-956.027	20.000
5.480	14807.020	106.172	811.083	-1055.569	21.000
5.500	14824.020	84.185	833.000	-1134.176	20.000
